#      z (A) rho (1e-6/A2) irho (1e-6/A2)
-10.00000000  20.07000030  -0.45799997
 -9.90000000  20.07000035  -0.45799996
 -9.80000000  20.07000042  -0.45799995
 -9.70000000  20.07000050  -0.45799995
 -9.60000000  20.07000059  -0.45799993
 -9.50000000  20.07000070  -0.45799992
 -9.40000000  20.07000082  -0.45799991
 -9.30000000  20.07000097  -0.45799989
 -9.20000000  20.07000115  -0.45799987
 -9.10000000  20.07000135  -0.45799985
 -9.00000000  20.07000160  -0.45799982
 -8.90000000  20.07000188  -0.45799979
 -8.80000000  20.07000221  -0.45799975
 -8.70000000  20.07000260  -0.45799971
 -8.60000000  20.07000305  -0.45799966
 -8.50000000  20.07000359  -0.45799960
 -8.40000000  20.07000420  -0.45799953
 -8.30000000  20.07000493  -0.45799945
 -8.20000000  20.07000577  -0.45799936
 -8.10000000  20.07000675  -0.45799925
 -8.00000000  20.07000789  -0.45799913
 -7.90000000  20.07000921  -0.45799898
 -7.80000000  20.07001074  -0.45799881
 -7.70000000  20.07001253  -0.45799861
 -7.60000000  20.07001459  -0.45799838
 -7.50000000  20.07001698  -0.45799812
 -7.40000000  20.07001975  -0.45799781
 -7.30000000  20.07002294  -0.45799745
 -7.20000000  20.07002663  -0.45799705
 -7.10000000  20.07003089  -0.45799657
 -7.00000000  20.07003579  -0.45799603
 -6.90000000  20.07004145  -0.45799540
 -6.80000000  20.07004795  -0.45799468
 -6.70000000  20.07005543  -0.45799385
 -6.60000000  20.07006401  -0.45799290
 -6.50000000  20.07007387  -0.45799180
 -6.40000000  20.07008517  -0.45799055
 -6.30000000  20.07009812  -0.45798911
 -6.20000000  20.07011294  -0.45798747
 -6.10000000  20.07012989  -0.45798559
 -6.00000000  20.07014926  -0.45798344
 -5.90000000  20.07017137  -0.45798099
 -5.80000000  20.07019659  -0.45797819
 -5.70000000  20.07022534  -0.45797500
 -5.60000000  20.07025806  -0.45797137
 -5.50000000  20.07029530  -0.45796724
 -5.40000000  20.07033761  -0.45796254
 -5.30000000  20.07038567  -0.45795721
 -5.20000000  20.07044020  -0.45795116
 -5.10000000  20.07050202  -0.45794430
 -5.00000000  20.07057203  -0.45793654
 -4.90000000  20.07065126  -0.45792775
 -4.80000000  20.07074085  -0.45791781
 -4.70000000  20.07084205  -0.45790658
 -4.60000000  20.07095627  -0.45789391
 -4.50000000  20.07108507  -0.45787962
 -4.40000000  20.07123019  -0.45786352
 -4.30000000  20.07139356  -0.45784539
 -4.20000000  20.07157729  -0.45782501
 -4.10000000  20.07178376  -0.45780210
 -4.00000000  20.07201557  -0.45777638
 -3.90000000  20.07227560  -0.45774753
 -3.80000000  20.07256703  -0.45771520
 -3.70000000  20.07289337  -0.45767899
 -3.60000000  20.07325848  -0.45763849
 -3.50000000  20.07366660  -0.45759321
 -3.40000000  20.07412240  -0.45754264
 -3.30000000  20.07463100  -0.45748621
 -3.20000000  20.07519803  -0.45742330
 -3.10000000  20.07582964  -0.45735323
 -3.00000000  20.07653256  -0.45727524
 -2.90000000  20.07731416  -0.45718853
 -2.80000000  20.07818249  -0.45709219
 -2.70000000  20.07914631  -0.45698526
 -2.60000000  20.08021520  -0.45686667
 -2.50000000  20.08139957  -0.45673527
 -2.40000000  20.08271073  -0.45658981
 -2.30000000  20.08416098  -0.45642891
 -2.20000000  20.08576369  -0.45625109
 -2.10000000  20.08753330  -0.45605476
 -2.00000000  20.08948549  -0.45583818
 -1.90000000  20.09163721  -0.45559946
 -1.80000000  20.09400677  -0.45533656
 -1.70000000  20.09661392  -0.45504731
 -1.60000000  20.09947997  -0.45472934
 -1.50000000  20.10262786  -0.45438010
 -1.40000000  20.10608228  -0.45399684
 -1.30000000  20.10986974  -0.45357664
 -1.20000000  20.11401870  -0.45311634
 -1.10000000  20.11855967  -0.45261254
 -1.00000000  20.12352533  -0.45206162
 -0.90000000  20.12895064  -0.45145971
 -0.80000000  20.13487291  -0.45080266
 -0.70000000  20.14133201  -0.45008606
 -0.60000000  20.14837042  -0.44930517
 -0.50000000  20.15603456  -0.44845372
 -0.40000000  20.16445598  -0.44743881
 -0.30000000  20.17604644  -0.44377806
 -0.20000000  20.21752470  -0.40949049
 -0.10000000  20.39749222  -0.23069137
 -0.00000000  20.79976976   0.18050236
  0.10000000  21.20300753   0.59180262
  0.20000000  21.38585929   0.77092173
  0.30000000  21.43215655   0.80574395
  0.40000000  21.45051859   0.81015597
  0.50000000  21.46768915   0.81214156
  0.60000000  21.48611201   0.81418664
  0.70000000  21.50595784   0.81638845
  0.80000000  21.52731916   0.81875838
  0.90000000  21.55029151   0.82130705
  1.00000000  21.57497471   0.82404554
  1.10000000  21.60147287   0.82698538
  1.20000000  21.62989446   0.83013862
  1.30000000  21.66035231   0.83351777
  1.40000000  21.69296366   0.83713584
  1.50000000  21.72785009   0.84100632
  1.60000000  21.76513754   0.84514319
  1.70000000  21.80495626   0.84956088
  1.80000000  21.84744072   0.85427433
  1.90000000  21.89272960   0.85929891
  2.00000000  21.94096559   0.86465046
  2.10000000  21.99229536   0.87034525
  2.20000000  22.04686936   0.87639998
  2.30000000  22.10484168   0.88283173
  2.40000000  22.16636984   0.88965798
  2.50000000  22.23161459   0.89689657
  2.60000000  22.30073965   0.90456566
  2.70000000  22.37391149   0.91268373
  2.80000000  22.45129898   0.92126950
  2.90000000  22.53307311   0.93034194
  3.00000000  22.61940664   0.93992023
  3.10000000  22.71047372   0.95002369
  3.20000000  22.80644953   0.96067174
  3.30000000  22.90750980   0.97188389
  3.40000000  23.01383043   0.98367965
  3.50000000  23.12558700   0.99607851
  3.60000000  23.24295424   1.00909984
  3.70000000  23.36610558   1.02276289
  3.80000000  23.49521258   1.03708669
  3.90000000  23.63044437   1.05209000
  4.00000000  23.77196710   1.06779127
  4.10000000  23.91994335   1.08420852
  4.20000000  24.07453148   1.10135933
  4.30000000  24.23588511   1.11926074
  4.40000000  24.40415238   1.13792918
  4.50000000  24.57947542   1.15738043
  4.60000000  24.76198964   1.17762950
  4.70000000  24.95182311   1.19869061
  4.80000000  25.14909594   1.22057709
  4.90000000  25.35391961   1.24330129
  5.00000000  25.56639635   1.26687456
  5.10000000  25.78661851   1.29130715
  5.20000000  26.01466797   1.31660814
  5.30000000  26.25061550   1.34278538
  5.40000000  26.49452024   1.36984543
  5.50000000  26.74642907   1.39779351
  5.60000000  27.00637616   1.42663339
  5.70000000  27.27438240   1.45636739
  5.80000000  27.55045495   1.48699631
  5.90000000  27.83458681   1.51851937
  6.00000000  28.12675641   1.55093418
  6.10000000  28.42692726   1.58423669
  6.20000000  28.73504761   1.61842116
  6.30000000  29.05105018   1.65348013
  6.40000000  29.37485198   1.68940438
  6.50000000  29.70635408   1.72618294
  6.60000000  30.04544150   1.76380306
  6.70000000  30.39198317   1.80225019
  6.80000000  30.74583190   1.84150800
  6.90000000  31.10682441   1.88155839
  7.00000000  31.47478147   1.92238145
  7.10000000  31.84950802   1.96395556
  7.20000000  32.23079342   2.00625734
  7.30000000  32.61841171   2.04926172
  7.40000000  33.01212199   2.09294198
  7.50000000  33.41166875   2.13726977
  7.60000000  33.81678238   2.18221518
  7.70000000  34.22717968   2.22774678
  7.80000000  34.64256440   2.27383172
  7.90000000  35.06262787   2.32043574
  8.00000000  35.48704969   2.36752330
  8.10000000  35.91549844   2.41505762
  8.20000000  36.34763243   2.46300081
  8.30000000  36.78310056   2.51131390
  8.40000000  37.22154311   2.55995700
  8.50000000  37.66259269   2.60888932
  8.60000000  38.10587511   2.65806937
  8.70000000  38.55101036   2.70745499
  8.80000000  38.99761358   2.75700347
  8.90000000  39.44529606   2.80667168
  9.00000000  39.89366625   2.85641620
  9.10000000  40.34233079   2.90619337
  9.20000000  40.79089555   2.95595947
  9.30000000  41.23896666   3.00567080
  9.40000000  41.68615154   3.05528381
  9.50000000  42.13205996   3.10475521
  9.60000000  42.57630503   3.15404206
  9.70000000  43.01850421   3.20310193
  9.80000000  43.45828033   3.25189297
  9.90000000  43.89526253   3.30037405
 10.00000000  44.32908718   3.34850480
 10.10000000  44.75939881   3.39624581
 10.20000000  45.18585099   3.44355862
 10.30000000  45.60810713   3.49040591
 10.40000000  46.02584128   3.53675150
 10.50000000  46.43873892   3.58256051
 10.60000000  46.84649756   3.62779937
 10.70000000  47.24882750   3.67243594
 10.80000000  47.64545234   3.71643956
 10.90000000  48.03610955   3.75978109
 11.00000000  48.42055098   3.80243302
 11.10000000  48.79854322   3.84436944
 11.20000000  49.16986804   3.88556614
 11.30000000  49.53432266   3.92600063
 11.40000000  49.89172001   3.96565214
 11.50000000  50.24188891   4.00450170
 11.60000000  50.58467422   4.04253208
 11.70000000  50.91993692   4.07972786
 11.80000000  51.24755407   4.11607541
 11.90000000  51.56741884   4.15156286
 12.00000000  51.87944039   4.18618015
 12.10000000  52.18354370   4.21991895
 12.20000000  52.47966939   4.25277267
 12.30000000  52.76777348   4.28473643
 12.40000000  53.04782705   4.31580703
 12.50000000  53.31981598   4.34598289
 12.60000000  53.58374047   4.37526404
 12.70000000  53.83961471   4.40365206
 12.80000000  54.08746636   4.43115001
 12.90000000  54.32733609   4.45776240
 13.00000000  54.55927706   4.48349513
 13.10000000  54.78335436   4.50835543
 13.20000000  54.99964447   4.53235178
 13.30000000  55.20823463   4.55549385
 13.40000000  55.40922229   4.57779247
 13.50000000  55.60271443   4.59925949
 13.60000000  55.78882697   4.61990778
 13.70000000  55.96768415   4.63975112
 13.80000000  56.13941782   4.65880414
 13.90000000  56.30416688   4.67708226
 14.00000000  56.46207658   4.69460158
 14.10000000  56.61329790   4.71137886
 14.20000000  56.75798696   4.72743141
 14.30000000  56.89630433   4.74277706
 14.40000000  57.02841445   4.75743404
 14.50000000  57.15448507   4.77142097
 14.60000000  57.27468662   4.78475675
 14.70000000  57.38919167   4.79746054
 14.80000000  57.49817437   4.80955164
 14.90000000  57.60180995   4.82104951
 15.00000000  57.70027421   4.83197365
 15.10000000  57.79374301   4.84234356
 15.20000000  57.88239188   4.85217873
 15.30000000  57.96639550   4.86149853
 15.40000000  58.04592739   4.87032221
 15.50000000  58.12115945   4.87866884
 15.60000000  58.19226163   4.88655729
 15.70000000  58.25940163   4.89400615
 15.80000000  58.32274456   4.90103374
 15.90000000  58.38245267   4.90765807
 16.00000000  58.43868510   4.91389678
 16.10000000  58.49159766   4.91976718
 16.20000000  58.54134263   4.92528614
 16.30000000  58.58806854   4.93047016
 16.40000000  58.63192009   4.93533528
 16.50000000  58.67303795   4.93989710
 16.60000000  58.71155865   4.94417079
 16.70000000  58.74761457   4.94817102
 16.80000000  58.78133376   4.95191200
 16.90000000  58.81283997   4.95540747
 17.00000000  58.84225259   4.95867065
 17.10000000  58.86968660   4.96171433
 17.20000000  58.89525264   4.96455076
 17.30000000  58.91905698   4.96719173
 17.40000000  58.94120154   4.96964856
 17.50000000  58.96178396   4.97193208
 17.60000000  58.98089763   4.97405265
 17.70000000  58.99863177   4.97602017
 17.80000000  59.01507150   4.97784408
 17.90000000  59.03029791   4.97953338
 18.00000000  59.04438816   4.98109662
 18.10000000  59.05741558   4.98254195
 18.20000000  59.06944976   4.98387709
 18.30000000  59.08055666   4.98510934
 18.40000000  59.09079872   4.98624565
 18.50000000  59.10023500   4.98729256
 18.60000000  59.10892125   4.98825626
 18.70000000  59.11691007   4.98914258
 18.80000000  59.12425099   4.98995702
 18.90000000  59.13099064   4.99070475
 19.00000000  59.13717283   4.99139064
 19.10000000  59.14283869   4.99201924
 19.20000000  59.14802678   4.99259483
 19.30000000  59.15277322   4.99312142
 19.40000000  59.15711179   4.99360277
 19.50000000  59.16107406   4.99404236
 19.60000000  59.16468948   4.99444348
 19.70000000  59.16798552   4.99480916
 19.80000000  59.17098776   4.99514224
 19.90000000  59.17371998   4.99544537
 20.00000000  59.17620428   4.99572099
 20.10000000  59.17846118   4.99597138
 20.20000000  59.18050969   4.99619865
 20.30000000  59.18236741   4.99640476
 20.40000000  59.18405065   4.99659150
 20.50000000  59.18557444   4.99676056
 20.60000000  59.18695268   4.99691347
 20.70000000  59.18819817   4.99705165
 20.80000000  59.18932272   4.99717641
 20.90000000  59.19033717   4.99728896
 21.00000000  59.19125151   4.99739040
 21.10000000  59.19207488   4.99748175
 21.20000000  59.19281569   4.99756394
 21.30000000  59.19348162   4.99763783
 21.40000000  59.19407973   4.99770418
 21.50000000  59.19461645   4.99776373
 21.60000000  59.19509765   4.99781712
 21.70000000  59.19552870   4.99786494
 21.80000000  59.19591449   4.99790774
 21.90000000  59.19625947   4.99794601
 22.00000000  59.19656767   4.99798021
 22.10000000  59.19684279   4.99801073
 22.20000000  59.19708816   4.99803795
 22.30000000  59.19730680   4.99806221
 22.40000000  59.19750145   4.99808381
 22.50000000  59.19767459   4.99810301
 22.60000000  59.19782846   4.99812009
 22.70000000  59.19796510   4.99813524
 22.80000000  59.19808631   4.99814869
 22.90000000  59.19819376   4.99816061
 23.00000000  59.19828891   4.99817117
 23.10000000  59.19837310   4.99818051
 23.20000000  59.19844753   4.99818877
 23.30000000  59.19851328   4.99819606
 23.40000000  59.19857130   4.99820250
 23.50000000  59.19862245   4.99820818
 23.60000000  59.19866752   4.99821318
 23.70000000  59.19870718   4.99821758
 23.80000000  59.19874207   4.99822145
 23.90000000  59.19877272   4.99822485
 24.00000000  59.19879962   4.99822783
 24.10000000  59.19882322   4.99823045
 24.20000000  59.19884390   4.99823274
 24.30000000  59.19886201   4.99823475
 24.40000000  59.19887784   4.99823651
 24.50000000  59.19889169   4.99823805
 24.60000000  59.19890378   4.99823939
 24.70000000  59.19891432   4.99824056
 24.80000000  59.19892352   4.99824158
 24.90000000  59.19893152   4.99824247
 25.00000000  59.19893849   4.99824324
 25.10000000  59.19894455   4.99824391
 25.20000000  59.19894981   4.99824449
 25.30000000  59.19895438   4.99824500
 25.40000000  59.19895834   4.99824544
 25.50000000  59.19896177   4.99824582
 25.60000000  59.19896474   4.99824615
 25.70000000  59.19896731   4.99824644
 25.80000000  59.19896953   4.99824668
 25.90000000  59.19897144   4.99824689
 26.00000000  59.19897310   4.99824708
 26.10000000  59.19897452   4.99824724
 26.20000000  59.19897575   4.99824737
 26.30000000  59.19897680   4.99824749
 26.40000000  59.19897771   4.99824759
 26.50000000  59.19897849   4.99824768
 26.60000000  59.19897915   4.99824775
 26.70000000  59.19897973   4.99824781
 26.80000000  59.19898022   4.99824787
 26.90000000  59.19898064   4.99824791
 27.00000000  59.19898100   4.99824795
 27.10000000  59.19898130   4.99824799
 27.20000000  59.19898157   4.99824802
 27.30000000  59.19898179   4.99824804
 27.40000000  59.19898198   4.99824806
 27.50000000  59.19898214   4.99824808
 27.60000000  59.19898228   4.99824810
 27.70000000  59.19898240   4.99824811
 27.80000000  59.19898249   4.99824812
 27.90000000  59.19898258   4.99824813
 28.00000000  59.19898265   4.99824814
 28.10000000  59.19898271   4.99824814
 28.20000000  59.19898276   4.99824815
 28.30000000  59.19898281   4.99824815
 28.40000000  59.19898284   4.99824816
 28.50000000  59.19898287   4.99824816
 28.60000000  59.19898290   4.99824817
 28.70000000  59.19898292   4.99824817
 28.80000000  59.19898294   4.99824817
 28.90000000  59.19898295   4.99824817
 29.00000000  59.19898297   4.99824817
 29.10000000  59.19898298   4.99824817
 29.20000000  59.19898299   4.99824818
 29.30000000  59.19898300   4.99824818
 29.40000000  59.19898300   4.99824818
 29.50000000  59.19898301   4.99824818
 29.60000000  59.19898301   4.99824818
 29.70000000  59.19898302   4.99824818
 29.80000000  59.19898302   4.99824818
 29.90000000  59.19898302   4.99824818
 30.00000000  59.19898302   4.99824818
 30.10000000  59.19898303   4.99824818
 30.20000000  59.19898303   4.99824818
 30.30000000  59.19898303   4.99824818
 30.40000000  59.19898303   4.99824818
 30.50000000  59.19898303   4.99824818
 30.60000000  59.19898303   4.99824818
 30.70000000  59.19898303   4.99824818
 30.80000000  59.19898303   4.99824818
 30.90000000  59.19898303   4.99824818
 31.00000000  59.19898303   4.99824818
 31.10000000  59.19898303   4.99824818
 31.20000000  59.19898303   4.99824818
 31.30000000  59.19898303   4.99824818
 31.40000000  59.19898303   4.99824818
 31.50000000  59.19898303   4.99824818
 31.60000000  59.19898303   4.99824818
 31.70000000  59.19898303   4.99824818
 31.80000000  59.19898303   4.99824818
 31.90000000  59.19898303   4.99824818
 32.00000000  59.19898303   4.99824818
 32.10000000  59.19898303   4.99824818
 32.20000000  59.19898303   4.99824818
 32.30000000  59.19898303   4.99824818
 32.40000000  59.19898303   4.99824818
 32.50000000  59.19898303   4.99824818
 32.60000000  59.19898303   4.99824818
 32.70000000  59.19898303   4.99824818
 32.80000000  59.19898303   4.99824818
 32.90000000  59.19898303   4.99824818
 33.00000000  59.19898303   4.99824818
 33.10000000  59.19898303   4.99824818
 33.20000000  59.19898303   4.99824818
 33.30000000  59.19898303   4.99824818
 33.40000000  59.19898303   4.99824818
 33.50000000  59.19898303   4.99824818
 33.60000000  59.19898303   4.99824818
 33.70000000  59.19898303   4.99824818
 33.80000000  59.19898303   4.99824818
 33.90000000  59.19898303   4.99824818
 34.00000000  59.19898303   4.99824818
 34.10000000  59.19898303   4.99824818
 34.20000000  59.19898303   4.99824818
 34.30000000  59.19898303   4.99824818
 34.40000000  59.19898303   4.99824818
 34.50000000  59.19898303   4.99824818
 34.60000000  59.19898303   4.99824818
 34.70000000  59.19898303   4.99824818
 34.80000000  59.19898303   4.99824818
 34.90000000  59.19898303   4.99824818
 35.00000000  59.19898303   4.99824818
 35.10000000  59.19898303   4.99824818
 35.20000000  59.19898303   4.99824818
 35.30000000  59.19898303   4.99824818
 35.40000000  59.19898303   4.99824818
 35.50000000  59.19898303   4.99824818
 35.60000000  59.19898303   4.99824818
 35.70000000  59.19898303   4.99824818
 35.80000000  59.19898303   4.99824818
 35.90000000  59.19898303   4.99824818
 36.00000000  59.19898303   4.99824818
 36.10000000  59.19898303   4.99824818
 36.20000000  59.19898303   4.99824818
 36.30000000  59.19898303   4.99824818
 36.40000000  59.19898303   4.99824818
 36.50000000  59.19898303   4.99824818
 36.60000000  59.19898303   4.99824818
 36.70000000  59.19898303   4.99824818
 36.80000000  59.19898303   4.99824818
 36.90000000  59.19898303   4.99824818
 37.00000000  59.19898303   4.99824818
 37.10000000  59.19898303   4.99824818
 37.20000000  59.19898303   4.99824818
 37.30000000  59.19898303   4.99824818
 37.40000000  59.19898303   4.99824818
 37.50000000  59.19898303   4.99824818
 37.60000000  59.19898303   4.99824818
 37.70000000  59.19898303   4.99824818
 37.80000000  59.19898303   4.99824818
 37.90000000  59.19898303   4.99824818
 38.00000000  59.19898303   4.99824818
 38.10000000  59.19898303   4.99824818
 38.20000000  59.19898303   4.99824818
 38.30000000  59.19898303   4.99824818
 38.40000000  59.19898303   4.99824818
 38.50000000  59.19898303   4.99824818
 38.60000000  59.19898303   4.99824818
 38.70000000  59.19898303   4.99824818
 38.80000000  59.19898303   4.99824818
 38.90000000  59.19898303   4.99824818
 39.00000000  59.19898303   4.99824818
 39.10000000  59.19898303   4.99824818
 39.20000000  59.19898303   4.99824818
 39.30000000  59.19898303   4.99824818
 39.40000000  59.19898303   4.99824818
 39.50000000  59.19898303   4.99824818
 39.60000000  59.19898303   4.99824818
 39.70000000  59.19898303   4.99824818
 39.80000000  59.19898303   4.99824818
 39.90000000  59.19898303   4.99824818
 40.00000000  59.19898303   4.99824818
 40.10000000  59.19898303   4.99824818
 40.20000000  59.19898303   4.99824818
 40.30000000  59.19898303   4.99824818
 40.40000000  59.19898303   4.99824818
 40.50000000  59.19898303   4.99824818
 40.60000000  59.19898303   4.99824818
 40.70000000  59.19898303   4.99824818
 40.80000000  59.19898303   4.99824818
 40.90000000  59.19898303   4.99824818
 41.00000000  59.19898303   4.99824818
